time (s)	coil I (A)	last det (V)	int current (uC)
8813.518693	3.265888	179.492187	-12.402344
8813.520695	3.267206	179.492187	-12.402344
8813.522696	3.267306	179.492187	-12.402344
8813.526694	3.266659	179.492187	-12.402344
8813.528696	3.266711	35.933819	0.051142
8814.504762	3.265885	39.648437	-270.800781
8814.506764	3.267209	39.648437	-270.800781
8814.508763	3.267364	39.648437	-270.800781
8814.510764	3.266908	39.648437	-270.800781
8814.512764	3.266771	35.934483	0.129414
8815.580786	3.266921	176.757812	-9.082031
8815.582788	3.267556	176.757812	-9.082031
8815.584788	3.267436	176.757812	-9.082031
8815.586790	3.266964	176.757812	-9.082031
8815.588788	3.266853	35.935379	0.062761
8816.578858	3.265144	44.140625	-267.968750
8816.580861	3.267201	44.140625	-267.968750
8816.582861	3.267668	44.140625	-267.968750
8816.584862	3.267180	44.140625	-267.968750
8816.586861	3.266928	35.936211	0.150704
8817.680909	3.265564	182.617187	-10.644531
8817.682907	3.267344	182.617187	-10.644531
8817.684907	3.267682	182.617187	-10.644531
8817.686909	3.267216	182.617187	-10.644531
8817.688907	3.266863	35.935493	0.049922
8818.673009	3.265079	44.238281	-263.281250
8818.675009	3.267005	44.238281	-263.281250
8818.677010	3.267364	44.238281	-263.281250
8818.679008	3.266910	44.238281	-263.281250
8818.681010	3.266759	35.934349	0.120432
8819.753084	3.266526	183.984375	-8.789062
8819.755087	3.267471	183.984375	-8.789062
8819.759084	3.267016	183.984375	-8.789062
8819.761086	3.266882	183.984375	-8.789062
8819.763086	3.266873	35.935600	0.070107
8820.757135	3.265576	42.382812	-268.750000
8820.759137	3.267155	42.382812	-268.750000
8820.761138	3.267391	42.382812	-268.750000
8820.763139	3.266907	42.382812	-268.750000
8820.765138	3.266733	35.934067	0.133610
8821.845203	3.266951	186.914062	-13.378906
8821.847204	3.267421	186.914062	-13.378906
8821.849205	3.267056	186.914062	-13.378906
8821.851205	3.266713	35.933846	0.056213
8822.839261	3.267221	43.652344	-276.367187
8822.841263	3.266724	43.652344	-276.367187
8822.843264	3.266567	35.932232	0.132533
8823.927833	3.266535	188.281250	-16.601562
8823.929836	3.267686	188.281250	-16.601562
8823.931835	3.267750	188.281250	-16.601562
8823.933835	3.267277	188.281250	-16.601562
8823.935835	3.267065	35.937717	0.077991
8824.913882	3.266103	42.675781	-280.957031
8824.915882	3.267164	42.675781	-280.957031
8824.917882	3.267318	42.675781	-280.957031
8824.919881	3.266856	42.675781	-280.957031
8824.921883	3.266680	35.933483	0.129966
8826.020850	3.266069	188.183594	-17.675781
8826.022850	3.267210	188.183594	-17.675781
8826.026850	3.266832	188.183594	-17.675781
8826.028851	3.266738	188.183594	-17.675781
8826.030850	3.266637	35.933002	0.055557
8826.996898	3.266541	39.257812	-271.289062
8826.998900	3.267578	39.257812	-271.289062
8827.000898	3.267606	39.257812	-271.289062
8827.002900	3.267065	39.257812	-271.289062
8827.004900	3.266890	35.935783	0.136494
8828.113891	3.267246	187.304687	-16.699219
8828.115898	3.267782	187.304687	-16.699219
8828.117896	3.267459	187.304687	-16.699219
8828.119897	3.267147	35.938622	0.062125
8829.083921	3.264878	39.257812	-254.882812
8829.085923	3.266984	39.257812	-254.882812
8829.087923	3.267406	39.257812	-254.882812
8829.089923	3.267030	39.257812	-254.882812
8829.091922	3.266727	35.933998	0.134400
8830.181964	3.265916	185.449219	-13.574219
8830.183967	3.267607	185.449219	-13.574219
8830.187964	3.267328	185.449219	-13.574219
8830.189964	3.267195	185.449219	-13.574219
8830.191965	3.267097	35.938072	0.064294
8831.178036	3.267478	44.433594	-248.046875
8831.180037	3.267039	44.433594	-248.046875
8831.182039	3.266841	35.935253	0.146293
8832.268614	3.267096	187.695312	-11.425781
8832.270616	3.267392	187.695312	-11.425781
8832.272617	3.267062	187.695312	-11.425781
8832.274617	3.266746	35.934208	0.057956
8833.263169	3.267445	42.382812	-246.875000
8833.265170	3.267467	42.382812	-246.875000
8833.267170	3.267194	42.382812	-246.875000
8833.269171	3.267028	35.937309	0.128625
8834.355223	3.184566	190.917969	-11.621094
8834.357224	3.267149	190.917969	-11.621094
8834.359227	3.266800	190.917969	-11.621094
8834.361225	3.266605	35.932655	0.064635
8835.347268	3.267616	39.941406	-253.125000
8835.349272	3.267787	39.941406	-253.125000
8835.351272	3.267253	39.941406	-253.125000
8835.353270	3.267107	35.938179	0.132493
8836.431338	3.267011	193.261719	-16.503906
8836.433340	3.267769	193.261719	-16.503906
8836.435339	3.267694	193.261719	-16.503906
8836.437340	3.267172	193.261719	-16.503906
8836.439340	3.267008	35.937088	0.070230
8837.425369	3.266243	41.308594	-258.203125
8837.427371	3.267168	41.308594	-258.203125
8837.429372	3.267224	41.308594	-258.203125
8837.431372	3.266713	41.308594	-258.203125
8837.433370	3.266541	35.931950	0.130880
8838.523440	3.265600	194.335937	-19.531250
8838.525440	3.267282	194.335937	-19.531250
8838.527442	3.267536	194.335937	-19.531250
8838.529442	3.267039	194.335937	-19.531250
8838.531440	3.266878	35.935661	0.071964
8839.509494	3.265514	41.601562	-259.667969
8839.511498	3.267282	41.601562	-259.667969
8839.513498	3.267623	41.601562	-259.667969
8839.515498	3.267130	41.601562	-259.667969
8839.517500	3.266788	35.934669	0.124492
8840.606416	3.263115	195.703125	-20.898437
8840.608414	3.266579	195.703125	-20.898437
8840.610413	3.267265	195.703125	-20.898437
8840.612414	3.267080	195.703125	-20.898437
8840.614413	3.266651	195.703125	-20.898437
8840.616414	3.266615	35.932762	0.078426
8841.588436	3.267044	42.675781	-260.449219
8841.590437	3.267724	42.675781	-260.449219
8841.592437	3.267537	42.675781	-260.449219
8841.594438	3.267095	42.675781	-260.449219
8841.596439	3.266911	35.936024	0.138131
8842.700491	3.266566	196.289062	-22.167969
8842.704492	3.266990	196.289062	-22.167969
8842.706491	3.266629	196.289062	-22.167969
8842.708491	3.266571	35.932285	0.235369
8843.676549	3.265814	39.160156	-255.273437
8843.678552	3.267083	39.160156	-255.273437
8843.680551	3.267208	39.160156	-255.273437
8843.682550	3.266716	39.160156	-255.273437
8843.684551	3.266524	35.931763	0.128573
8844.779499	3.264090	196.679687	-21.972656
8844.783502	3.267277	196.679687	-21.972656
8844.785501	3.267107	196.679687	-21.972656
8844.787501	3.266738	196.679687	-21.972656
8844.789501	3.266539	35.931931	0.073306
8845.759548	3.266510	35.839844	-248.242187
8845.761549	3.267628	35.839844	-248.242187
8845.763550	3.267753	35.839844	-248.242187
8845.765549	3.267176	35.839844	-248.242187
8845.767550	3.267013	35.937141	0.126323
8846.861599	3.267214	196.777344	-21.386719
8846.863599	3.267314	196.777344	-21.386719
8846.867598	3.266649	196.777344	-21.386719
8846.869600	3.266579	35.932365	0.076599
8847.841650	3.266388	37.890625	-248.242187
8847.843654	3.267210	37.890625	-248.242187
8847.845652	3.267321	37.890625	-248.242187
8847.847652	3.266728	37.890625	-248.242187
8847.849652	3.266555	35.932110	0.135431
8848.949665	3.266949	199.023437	-23.339844
8848.951669	3.267176	199.023437	-23.339844
8848.953669	3.266791	199.023437	-23.339844
8848.955669	3.266554	35.932091	0.812378
8849.931726	3.265120	36.035156	-242.382812
8849.933731	3.266874	36.035156	-242.382812
8849.935730	3.267124	36.035156	-242.382812
8849.937729	3.266802	36.035156	-242.382812
8849.939728	3.266456	35.931019	0.130964
8851.031738	3.267643	198.632812	-21.582031
8851.033738	3.267590	198.632812	-21.582031
8851.035739	3.267088	198.632812	-21.582031
8851.037739	3.267049	35.937538	0.275158
8852.014297	3.264505	37.011719	-237.890625
8852.016299	3.266809	37.011719	-237.890625
8852.018299	3.267167	37.011719	-237.890625
8852.020298	3.266821	37.011719	-237.890625
8852.022297	3.266431	35.930740	0.127671
8853.114357	3.265448	200.488281	-21.582031
8853.116361	3.267216	200.488281	-21.582031
8853.118363	3.267538	200.488281	-21.582031
8853.120366	3.267035	200.488281	-21.582031
8853.122365	3.266873	35.935600	0.077005
8854.102419	3.266710	39.160156	-228.027344
8854.104420	3.267455	39.160156	-228.027344
8854.106419	3.267560	39.160156	-228.027344
8854.110419	3.266791	39.160156	-228.027344
8854.112421	3.266810	35.934910	0.131797
8855.194491	3.266976	198.925781	-17.187500
8855.196495	3.267485	198.925781	-17.187500
8855.198493	3.267297	198.925781	-17.187500
8855.200493	3.266811	198.925781	-17.187500
8855.202494	3.266860	35.935467	0.387489
8856.191405	3.265424	39.355469	-214.941406
8856.195406	3.267647	39.355469	-214.941406
8856.197407	3.267183	39.355469	-214.941406
8856.199406	3.266838	35.935219	0.130063
8857.271454	3.264484	199.121094	-16.113281
8857.273455	3.266791	199.121094	-16.113281
8857.275456	3.267155	199.121094	-16.113281
8857.277455	3.266857	199.121094	-16.113281
8857.279455	3.266559	35.932152	0.078859
8858.273535	3.263300	42.480469	-212.304687
8858.275538	3.266620	42.480469	-212.304687
8858.277538	3.267131	42.480469	-212.304687
8858.279537	3.267031	42.480469	-212.304687
8858.281537	3.266596	42.480469	-212.304687
8858.283538	3.266599	35.932587	0.135672
8859.367583	3.267211	199.707031	-19.433594
8859.369584	3.267320	199.707031	-19.433594
8859.371585	3.266778	199.707031	-19.433594
8859.373585	3.266655	35.933208	0.067080
8860.357673	3.265989	34.765625	-202.050781
8860.359677	3.267028	34.765625	-202.050781
8860.363679	3.266711	34.765625	-202.050781
8860.365679	3.266509	34.765625	-202.050781
8860.367679	3.266515	35.931664	0.137368
8861.447727	3.266488	197.167969	-19.531250
8861.449729	3.266521	197.167969	-19.531250
8861.451728	3.267050	197.167969	-19.531250
8861.453728	3.266601	197.167969	-19.531250
8861.455731	3.266496	35.931461	0.071754
8862.432292	3.264208	33.105469	-211.035156
8862.434295	3.266831	33.105469	-211.035156
8862.436297	3.267317	33.105469	-211.035156
8862.438296	3.266948	33.105469	-211.035156
8862.440295	3.266626	35.932888	0.138630
8863.536391	3.266356	200.488281	-23.046875
8863.538392	3.267210	200.488281	-23.046875
8863.540393	3.267181	200.488281	-23.046875
8863.542393	3.266747	200.488281	-23.046875
8863.544394	3.266616	35.932774	0.073236
8864.518446	3.267220	34.570312	-220.800781
8864.520448	3.267146	34.570312	-220.800781
8864.522449	3.266726	34.570312	-220.800781
8864.524448	3.266728	35.934013	0.133485
8865.619065	3.264721	202.539062	-24.804687
8865.621067	3.267164	202.539062	-24.804687
8865.623068	3.267610	202.539062	-24.804687
8865.625067	3.267330	202.539062	-24.804687
8865.627071	3.266993	35.936920	0.073308
8866.601116	3.264767	32.714844	-218.847656
8866.603118	3.267084	32.714844	-218.847656
8866.605116	3.267541	32.714844	-218.847656
8866.607117	3.267180	32.714844	-218.847656
8866.609118	3.266877	35.935642	0.130390
8867.705157	3.266513	206.054687	-25.585937
8867.707157	3.267356	206.054687	-25.585937
8867.709156	3.267380	206.054687	-25.585937
8867.711157	3.266838	206.054687	-25.585937
8867.713157	3.266728	35.934006	0.080263
8868.685202	3.265385	34.375000	-219.335937
8868.687205	3.267210	34.375000	-219.335937
8868.689205	3.267587	34.375000	-219.335937
8868.691206	3.267180	34.375000	-219.335937
8868.693205	3.266855	35.935406	0.126805
8869.785263	3.265867	207.128906	-24.218750
8869.787263	3.267382	207.128906	-24.218750
8869.789264	3.267550	207.128906	-24.218750
8869.793263	3.266874	207.128906	-24.218750
8869.795267	3.266833	35.935165	0.084203
8870.773334	3.265604	35.644531	-208.398437
8870.775337	3.267180	35.644531	-208.398437
8870.777337	3.267493	35.644531	-208.398437
8870.779338	3.266982	35.644531	-208.398437
8870.781336	3.266770	35.934467	0.129121
8871.869405	3.267369	206.738281	-21.484375
8871.871407	3.267488	206.738281	-21.484375
8871.873406	3.266927	206.738281	-21.484375
8871.875408	3.266813	35.934944	0.085721
8872.847466	3.266811	43.847656	-213.281250
8872.849465	3.267211	43.847656	-213.281250
8872.851466	3.266872	43.847656	-213.281250
8872.853468	3.266535	35.931885	0.140742
8873.947547	3.265332	204.492187	-19.531250
8873.949552	3.267248	204.492187	-19.531250
8873.951549	3.267692	204.492187	-19.531250
8873.953549	3.267207	204.492187	-19.531250
8873.955549	3.266870	35.935574	0.081690
8874.949610	3.266135	36.132812	-179.589844
8874.951612	3.267195	36.132812	-179.589844
8874.953614	3.267257	36.132812	-179.589844
8874.955613	3.266821	36.132812	-179.589844
8874.957614	3.266689	35.933578	0.131718
8876.033657	3.266688	204.589844	-21.289062
8876.035657	3.267356	204.589844	-21.289062
8876.037657	3.267262	204.589844	-21.289062
8876.039657	3.266783	204.589844	-21.289062
8876.041658	3.266745	35.934189	0.207339
8877.029679	3.264953	36.035156	-178.906250
8877.031681	3.266955	36.035156	-178.906250
8877.033682	3.267314	36.035156	-178.906250
8877.035683	3.267007	36.035156	-178.906250
8877.037681	3.266672	35.933395	0.133424
8878.117750	3.266187	204.101562	-21.777344
8878.119753	3.267417	204.101562	-21.777344
8878.121752	3.267703	204.101562	-21.777344
8878.123757	3.267123	204.101562	-21.777344
8878.125758	3.266979	35.936768	0.078439
8879.109798	3.263228	35.742187	-177.929687
8879.111801	3.266803	35.742187	-177.929687
8879.113801	3.267520	35.742187	-177.929687
8879.115801	3.267418	35.742187	-177.929687
8879.117800	3.266863	35.742187	-177.929687
8879.119800	3.266804	35.934845	0.134323
8880.207821	3.266449	205.175781	-24.121094
8880.209824	3.267609	205.175781	-24.121094
8880.211824	3.267828	205.175781	-24.121094
8880.213823	3.267219	205.175781	-24.121094
8880.215823	3.266985	35.936832	0.075526
8881.197877	3.267280	32.812500	-171.484375
8881.199879	3.267481	32.812500	-171.484375
8881.201879	3.266888	32.812500	-171.484375
8881.203882	3.266743	35.934174	0.132298
8882.287973	2.156883	204.589844	-23.437500
8882.289974	3.267638	204.589844	-23.437500
8882.291975	3.267679	204.589844	-23.437500
8882.293974	3.267164	204.589844	-23.437500
8882.295974	3.267042	35.937462	0.079878
8883.280017	3.266450	34.765625	-173.632812
8883.282019	3.267476	34.765625	-173.632812
8883.284020	3.267596	34.765625	-173.632812
8883.286018	3.267012	34.765625	-173.632812
8883.288020	3.266860	35.935467	0.135161
8884.374558	3.266424	205.468750	-23.925781
8884.376561	3.267470	205.468750	-23.925781
8884.378561	3.267582	205.468750	-23.925781
8884.380560	3.267067	205.468750	-23.925781
8884.382561	3.266914	35.936054	0.076207
8885.362599	3.266330	34.179687	-171.289062
8885.364601	3.267586	34.179687	-171.289062
8885.366601	3.267761	34.179687	-171.289062
8885.368602	3.267218	34.179687	-171.289062
8885.370601	3.266972	35.936691	0.132549
8886.458665	3.264865	210.937500	-24.121094
8886.460667	3.266954	210.937500	-24.121094
8886.462668	3.267333	210.937500	-24.121094
8886.464668	3.266928	210.937500	-24.121094
8886.466669	3.266592	35.932514	0.079853
8887.445211	3.263263	37.695312	-169.628906
8887.447216	3.266714	37.695312	-169.628906
8887.449214	3.267276	37.695312	-169.628906
8887.451213	3.267246	37.695312	-169.628906
8887.453215	3.266740	37.695312	-169.628906
8887.455214	3.266658	35.933243	0.137602
8888.539288	3.264919	209.179687	-22.558594
8888.541288	3.267304	209.179687	-22.558594
8888.543288	3.267684	209.179687	-22.558594
8888.545287	3.267373	209.179687	-22.558594
8888.547289	3.267006	35.937069	0.078887
8889.535278	3.265879	33.789062	-161.816406
8889.537279	3.267196	33.789062	-161.816406
8889.541279	3.266898	33.789062	-161.816406
8889.543281	3.266682	33.789062	-161.816406
8889.545279	3.266710	35.933811	0.130439
8890.615299	3.266585	211.425781	-23.046875
8890.617300	3.267289	211.425781	-23.046875
8890.619301	3.267143	211.425781	-23.046875
8890.621301	3.266791	211.425781	-23.046875
8890.623301	3.266690	35.933594	0.122713
8891.617359	3.266442	39.550781	-172.265625
8891.619360	3.267510	39.550781	-172.265625
8891.621360	3.267578	39.550781	-172.265625
8891.623362	3.267118	39.550781	-172.265625
8891.625370	3.266963	35.936592	0.130156
8892.705414	3.263320	213.378906	-22.753906
8892.709413	3.267823	213.378906	-22.753906
8892.711414	3.267654	213.378906	-22.753906
8892.715413	3.267009	213.378906	-22.753906
8892.717414	3.267049	35.937538	0.079886
8893.699941	3.265957	34.863281	-167.187500
8893.701944	3.267263	34.863281	-167.187500
8893.703944	3.267464	34.863281	-167.187500
8893.705950	3.266899	34.863281	-167.187500
8893.707953	3.266680	35.933483	0.126569
8894.788004	3.265188	215.039062	-24.316406
8894.790008	3.267023	215.039062	-24.316406
8894.792007	3.267020	215.039062	-24.316406
8894.794006	3.266928	215.039062	-24.316406
8894.796008	3.266671	35.933384	0.083945
8895.786080	3.267167	32.519531	-171.289062
8895.792080	3.266616	32.519531	-171.289062
8895.794080	3.266571	32.519531	-171.289062
8895.798081	3.266565	35.932213	0.125233
8896.874127	3.265770	216.015625	-29.003906
8896.876128	3.267361	216.015625	-29.003906
8896.878129	3.267537	216.015625	-29.003906
8896.880130	3.267110	216.015625	-29.003906
8896.882130	3.266994	35.936928	0.085699
8897.868178	3.267429	31.347656	-175.585937
8897.870180	3.267412	31.347656	-175.585937
8897.872182	3.266918	31.347656	-175.585937
8897.874181	3.266842	35.935265	0.124250
8898.962271	3.263978	216.503906	-31.054687
8898.966272	3.267713	216.503906	-31.054687
8898.968274	3.267492	216.503906	-31.054687
8898.970274	3.267037	216.503906	-31.054687
8898.972274	3.266930	35.936230	0.088406
8899.946329	3.265933	30.273437	-172.363281
8899.948330	3.267201	30.273437	-172.363281
8899.950330	3.267454	30.273437	-172.363281
8899.952332	3.266948	30.273437	-172.363281
8899.954329	3.266667	35.933338	0.126509
8901.046420	3.264594	215.234375	-31.054687
8901.048420	3.266927	215.234375	-31.054687
8901.050422	3.267356	215.234375	-31.054687
8901.052423	3.267063	215.234375	-31.054687
8901.054423	3.266732	35.934048	0.084870
8902.028472	3.267126	31.250000	-170.898437
8902.030475	3.267637	31.250000	-170.898437
8902.032475	3.267310	31.250000	-170.898437
8902.034474	3.266956	35.936512	0.126692
8903.132996	3.266832	214.355469	-30.273437
8903.134996	3.267388	214.355469	-30.273437
8903.136996	3.267106	214.355469	-30.273437
8903.138997	3.266803	214.355469	-30.273437
8903.140997	3.266756	35.934315	0.083045
8904.111046	3.266512	28.808594	-154.785156
8904.113047	3.267683	28.808594	-154.785156
8904.115047	3.267841	28.808594	-154.785156
8904.117049	3.267221	28.808594	-154.785156
8904.119049	3.267132	35.938454	0.130311
8905.213070	3.266256	213.378906	-28.027344
8905.215071	3.267359	213.378906	-28.027344
8905.217070	3.267365	213.378906	-28.027344
8905.219070	3.266804	213.378906	-28.027344
8905.221072	3.266678	35.933453	0.077832
8906.201636	3.265545	27.832031	-139.257812
8906.203639	3.267245	27.832031	-139.257812
8906.205639	3.267505	27.832031	-139.257812
8906.207639	3.267005	27.832031	-139.257812
8906.209638	3.266822	35.935040	0.128850
8907.295681	3.264068	214.941406	-28.515625
8907.297682	3.266836	214.941406	-28.515625
8907.299682	3.267334	214.941406	-28.515625
8907.301684	3.267109	214.941406	-28.515625
8907.303682	3.266744	214.941406	-28.515625
8907.305684	3.266633	35.932957	0.081434
8908.285732	3.267119	33.496094	-139.257812
8908.287734	3.267700	33.496094	-139.257812
8908.289736	3.267508	33.496094	-139.257812
8908.291736	3.267044	33.496094	-139.257812
8908.293733	3.266982	35.936806	0.361142
8909.376253	3.263523	217.285156	-27.246094
8909.378256	3.266934	217.285156	-27.246094
8909.380256	3.267556	217.285156	-27.246094
8909.382257	3.267380	217.285156	-27.246094
8909.384256	3.266896	217.285156	-27.246094
8909.386257	3.266771	35.934483	0.084611
8910.368307	3.265419	34.375000	-134.960937
8910.370309	3.266993	34.375000	-134.960937
8910.372314	3.267303	34.375000	-134.960937
8910.374321	3.266894	34.375000	-134.960937
8910.376325	3.266602	35.932621	0.130131
8911.458378	3.264247	218.847656	-26.171875
8911.460381	3.266737	218.847656	-26.171875
8911.462382	3.267189	218.847656	-26.171875
8911.464381	3.266942	218.847656	-26.171875
8911.466381	3.266491	35.931396	0.088139
8912.456437	3.265692	36.035156	-137.792969
8912.458439	3.267126	36.035156	-137.792969
8912.460439	3.267394	36.035156	-137.792969
8912.462440	3.266829	36.035156	-137.792969
8912.464439	3.266651	35.933163	0.124134
8913.545405	3.267405	219.824219	-25.683594
8913.547407	3.267894	219.824219	-25.683594
8913.549406	3.267467	219.824219	-25.683594
8913.551407	3.267151	35.938663	0.087015
8914.539414	3.267317	31.738281	-129.687500
8914.541415	3.267864	31.738281	-129.687500
8914.543417	3.267577	31.738281	-129.687500
