time (s)	coil I (A)	last det (V)	int current (uC)
7951.584628	3.266554	27.734375	-361.230469
7951.586629	3.267151	27.734375	-361.230469
7951.588629	3.266826	27.734375	-361.230469
7951.590629	3.266787	35.934654	0.111814
7952.629607	3.263806	109.863281	26.464844
7952.631611	3.266889	109.863281	26.464844
7952.633614	3.267169	109.863281	26.464844
7952.635613	3.266785	109.863281	26.464844
7952.637613	3.266661	35.933266	0.070127
7953.665645	3.266095	23.925781	-368.066406
7953.667648	3.266997	23.925781	-368.066406
7953.669649	3.266643	23.925781	-368.066406
7953.671645	3.266521	35.931736	0.114234
7954.719711	3.265371	111.328125	25.488281
7954.721712	3.267149	111.328125	25.488281
7954.723713	3.267035	111.328125	25.488281
7954.725713	3.266681	35.933491	0.071665
7955.751759	3.266583	23.242187	-369.921875
7955.753760	3.267163	23.242187	-369.921875
7955.755761	3.266888	23.242187	-369.921875
7955.757759	3.266774	35.934509	0.117892
7956.801826	3.266495	111.425781	23.535156
7956.803828	3.267228	111.425781	23.535156
7956.805828	3.266774	111.425781	23.535156
7956.807827	3.266727	35.933998	0.069713
7957.835851	3.266790	26.074219	-365.625000
7957.837854	3.266753	26.074219	-365.625000
7957.839854	3.266500	35.931496	0.113222
7958.878433	3.266469	110.937500	26.171875
7958.880436	3.267207	110.937500	26.171875
7958.882434	3.266912	110.937500	26.171875
7958.884434	3.266786	35.934643	0.076176
7959.916998	3.266675	28.808594	-361.816406
7959.918999	3.267238	28.808594	-361.816406
7959.921000	3.267194	28.808594	-361.816406
7959.923000	3.266814	35.934952	0.113616
7960.965019	3.265619	110.644531	24.609375
7960.967021	3.267453	110.644531	24.609375
7960.969023	3.267356	110.644531	24.609375
7960.971023	3.267105	35.938152	0.068527
7962.005072	3.265545	25.585937	-372.558594
7962.007074	3.267181	25.585937	-372.558594
7962.009074	3.266951	25.585937	-372.558594
7962.011075	3.266761	35.934368	0.113776
7963.049102	3.263102	109.570312	23.925781
7963.051103	3.266781	109.570312	23.925781
7963.053103	3.267313	109.570312	23.925781
7963.057100	3.266791	109.570312	23.925781
7963.059103	3.266787	35.934654	0.068527
7964.089137	3.266984	26.757812	-370.214844
7964.091139	3.267141	26.757812	-370.214844
7964.093140	3.266855	26.757812	-370.214844
7964.095138	3.266749	35.934242	0.116198
7965.131692	3.266172	109.765625	25.000000
7965.133694	3.267413	109.765625	25.000000
7965.135694	3.267024	109.765625	25.000000
7965.137695	3.266919	35.936111	0.069389
7966.167733	3.265026	19.238281	-376.367187
7966.169734	3.267355	19.238281	-376.367187
7966.171734	3.267318	19.238281	-376.367187
7966.173736	3.267064	35.937698	0.124254
7967.223807	3.265377	111.621094	21.484375
7967.225809	3.267130	111.621094	21.484375
7967.227808	3.266987	111.621094	21.484375
7967.229808	3.266756	35.934315	0.062120
7968.250765	3.267056	17.285156	-384.082031
7968.252764	3.267325	17.285156	-384.082031
7968.254765	3.266935	17.285156	-384.082031
7968.256764	3.266831	35.935139	0.419351
7969.302793	3.263288	113.671875	20.507812
7969.304795	3.266586	113.671875	20.507812
7969.306795	3.266908	113.671875	20.507812
7969.308794	3.266600	113.671875	20.507812
7969.310795	3.266545	35.931992	0.069833
7970.327395	3.264058	23.242187	-375.000000
7970.329395	3.267227	23.242187	-375.000000
7970.331395	3.267429	23.242187	-375.000000
7970.333396	3.267182	23.242187	-375.000000
7970.335396	3.267091	35.938000	0.123478
7971.389459	3.265973	114.648437	18.554687
7971.391461	3.267007	114.648437	18.554687
7971.393461	3.266625	114.648437	18.554687
7971.395462	3.266489	35.931381	0.073195
7972.423468	3.266600	23.925781	-373.046875
7972.425471	3.266842	23.925781	-373.046875
7972.427469	3.266578	23.925781	-373.046875
7972.429472	3.266426	35.930683	0.359961
7973.463541	3.267500	112.304687	24.218750
7973.465543	3.267166	112.304687	24.218750
7973.467543	3.267116	35.938278	0.070706
7974.499593	3.265902	27.050781	-370.507812
7974.501596	3.267361	27.050781	-370.507812
7974.503594	3.267056	27.050781	-370.507812
7974.505596	3.266800	35.934803	0.124229
7975.555658	3.264552	112.695312	20.019531
7975.557660	3.266983	112.695312	20.019531
7975.559658	3.267073	112.695312	20.019531
7975.561658	3.266877	35.935650	0.068326
7976.585700	3.266190	18.945312	-377.343750
7976.587703	3.267184	18.945312	-377.343750
7976.589702	3.266839	18.945312	-377.343750
7976.591703	3.266813	35.934944	0.121088
7977.638247	3.266661	113.964844	18.359375
7977.640249	3.267259	113.964844	18.359375
7977.642250	3.266940	113.964844	18.359375
7977.644251	3.266819	35.935013	0.065539
7978.662293	3.266190	19.335937	-382.910156
7978.664294	3.267428	19.335937	-382.910156
7978.666297	3.267062	19.335937	-382.910156
7978.668296	3.266989	35.936874	0.117402
7979.724355	3.266884	116.406250	15.527344
7979.726356	3.267368	116.406250	15.527344
7979.728357	3.267025	116.406250	15.527344
7979.730356	3.267038	35.937416	0.138764
7980.756412	3.267075	21.875000	-376.269531
7980.758414	3.266703	21.875000	-376.269531
7980.760413	3.266658	35.933235	0.129332
7981.804473	3.266976	115.527344	21.777344
7981.806475	3.266646	115.527344	21.777344
7981.808474	3.266667	35.933338	0.070933
7982.837029	3.265954	24.902344	-373.925781
7982.839030	3.267188	24.902344	-373.925781
7982.841030	3.266942	24.902344	-373.925781
7982.843030	3.266762	35.934383	0.113955
7983.877084	3.265145	113.574219	22.851562
7983.879086	3.267013	113.574219	22.851562
7983.881088	3.266815	113.574219	22.851562
7983.883088	3.266613	35.932739	0.072749
7984.919121	3.264778	24.316406	-373.535156
7984.921122	3.267354	24.316406	-373.535156
7984.923122	3.267385	24.316406	-373.535156
7984.925124	3.267044	35.937481	0.126118
7985.975193	3.263822	113.964844	18.066406
7985.977195	3.266813	113.964844	18.066406
7985.979197	3.266977	113.964844	18.066406
7985.981195	3.266637	113.964844	18.066406
7985.983195	3.266605	35.932655	0.063818
7987.001736	3.265904	17.773437	-379.199219
7987.003737	3.267158	17.773437	-379.199219
7987.005735	3.266790	17.773437	-379.199219
7987.007738	3.266656	35.933216	0.117781
7988.055782	3.267523	115.332031	18.652344
7988.057783	3.267217	115.332031	18.652344
7988.059783	3.266973	35.936699	0.063481
7989.078729	3.266496	18.945312	-379.492187
7989.080732	3.267346	18.945312	-379.492187
7989.082732	3.266923	18.945312	-379.492187
7989.084732	3.266770	35.934475	0.120104
7990.140801	3.266908	117.578125	13.378906
7990.142802	3.267619	117.578125	13.378906
7990.144801	3.267208	117.578125	13.378906
7990.146805	3.267052	35.937576	0.070587
7991.164836	3.265939	19.628906	-382.519531
7991.166838	3.267127	19.628906	-382.519531
7991.168839	3.266744	19.628906	-382.519531
7991.170839	3.266627	35.932899	0.118304
7992.228875	2.938504	118.164062	13.867187
7992.230878	3.266939	118.164062	13.867187
7992.232877	3.266815	35.934963	0.065169
7993.247446	3.266440	20.507812	-382.519531
7993.249449	3.267272	20.507812	-382.519531
7993.251449	3.266855	20.507812	-382.519531
7993.253449	3.266707	35.933781	0.112688
7994.309486	3.265481	118.945312	12.988281
7994.311487	3.265634	118.945312	12.988281
7994.313488	3.267332	118.945312	12.988281
7994.315489	3.267027	35.937294	0.074435
7995.333539	3.266679	19.238281	-384.472656
7995.335542	3.267381	19.238281	-384.472656
7995.337540	3.267002	19.238281	-384.472656
7995.339541	3.266839	35.935226	0.114523
7996.393591	3.264913	119.726562	13.769531
7996.399591	3.267073	119.726562	13.769531
7996.403590	3.267051	119.726562	13.769531
7996.405592	3.267012	35.937134	0.070096
7997.416560	3.266848	18.945312	-385.449219
7997.418563	3.267251	18.945312	-385.449219
7997.420563	3.266915	18.945312	-385.449219
7997.422562	3.266826	35.935085	0.232019
7998.478599	3.263675	120.214844	10.546875
7998.480600	3.266994	120.214844	10.546875
7998.484599	3.266902	120.214844	10.546875
7998.486601	3.266906	120.214844	10.546875
7998.488600	3.266865	35.935509	0.065579
7999.498624	3.265920	21.289062	-380.957031
7999.500624	3.267035	21.289062	-380.957031
7999.502626	3.266746	21.289062	-380.957031
7999.504624	3.266649	35.933136	0.112335
8000.558688	3.264848	120.410156	11.230469
8000.560690	3.267276	120.410156	11.230469
8000.562690	3.267364	120.410156	11.230469
8000.564689	3.267081	35.937885	0.071728
8001.584721	3.267351	21.777344	-380.273437
8001.586721	3.266858	21.777344	-380.273437
8001.588721	3.266900	35.935902	0.123802
8002.641243	3.266356	120.507812	11.621094
8002.643245	3.266413	120.507812	11.621094
8002.645246	3.266738	120.507812	11.621094
8002.647247	3.266630	35.932930	0.068906
8003.661295	3.266062	19.140625	-382.226562
8003.663298	3.267151	19.140625	-382.226562
8003.665298	3.266743	19.140625	-382.226562
8003.667298	3.266736	35.934093	0.120485
8004.729333	3.266684	120.117187	13.281250
8004.731335	3.266595	35.932541	0.071400
8005.747403	3.264695	17.187500	-381.835937
8005.749406	3.266918	17.187500	-381.835937
8005.751405	3.266814	17.187500	-381.835937
8005.753406	3.266635	35.932983	0.124761
8006.811461	3.266368	119.824219	12.207031
8006.813463	3.267065	119.824219	12.207031
8006.815463	3.266641	119.824219	12.207031
8006.817463	3.266593	35.932526	0.067922
8007.837553	3.266747	17.578125	-381.152344
8007.839554	3.267420	17.578125	-381.152344
8007.841554	3.267062	17.578125	-381.152344
8007.843554	3.266950	35.936451	0.118031
8008.889646	3.266993	119.433594	14.355469
8008.891647	3.266776	119.433594	14.355469
8008.893647	3.266735	35.934082	0.070515
8009.919707	3.265668	26.464844	-371.972656
8009.921708	3.267007	26.464844	-371.972656
8009.923711	3.266804	26.464844	-371.972656
8009.925710	3.266653	35.933182	0.117237
8010.975770	3.266351	121.093750	14.062500
8010.977773	3.267241	121.093750	14.062500
8010.979771	3.267009	121.093750	14.062500
8010.981772	3.266854	35.935394	0.066721
8012.003835	3.266999	28.125000	-368.066406
8012.005837	3.267445	28.125000	-368.066406
8012.007837	3.267211	28.125000	-368.066406
8012.009838	3.267097	35.938065	0.117836
8013.058401	3.266799	123.144531	14.453125
8013.060401	3.267049	123.144531	14.453125
8013.062399	3.266698	123.144531	14.453125
8013.064402	3.266610	35.932713	0.072237
8014.083001	3.266016	21.679687	-378.808594
8014.085002	3.267136	21.679687	-378.808594
8014.087003	3.266822	21.679687	-378.808594
8014.089002	3.266571	35.932285	0.117114
8015.145066	3.266136	124.316406	8.593750
8015.147068	3.266930	124.316406	8.593750
8015.149067	3.266544	124.316406	8.593750
8015.151067	3.266541	35.931950	0.069286
8016.163111	3.265961	21.289062	-381.933594
8016.165112	3.267177	21.289062	-381.933594
8016.167113	3.266877	21.289062	-381.933594
8016.169112	3.266755	35.934307	0.116904
8017.225166	3.264067	123.535156	10.156250
8017.227178	3.266909	123.535156	10.156250
8017.229179	3.267095	123.535156	10.156250
8017.231179	3.266615	123.535156	10.156250
8017.233180	3.266642	35.933067	0.071084
8018.249243	3.265634	18.847656	-379.492187
8018.251246	3.267326	18.847656	-379.492187
8018.253246	3.267130	18.847656	-379.492187
8018.255245	3.266915	35.936069	0.119348
8019.313291	3.267514	122.753906	10.546875
8019.319290	3.267172	122.753906	10.546875
8019.321292	3.267070	35.937771	0.068337
8020.337326	3.266608	21.386719	-376.074219
8020.339328	3.266926	21.386719	-376.074219
8020.341331	3.266575	21.386719	-376.074219
8020.345334	3.266497	35.931469	0.120590
8021.391368	3.266892	122.558594	13.378906
8021.393370	3.266870	35.935566	0.172290
8022.421996	3.266534	25.976562	-373.632812
8022.423997	3.267032	25.976562	-373.632812
8022.427995	3.266615	25.976562	-373.632812
8022.429996	3.266612	35.932728	0.116358
8023.474041	3.266922	124.609375	13.183594
8023.476044	3.267612	124.609375	13.183594
8023.478044	3.267184	124.609375	13.183594
8023.480044	3.267115	35.938267	0.074621
8024.504095	3.266080	25.000000	-372.753906
8024.506098	3.267512	25.000000	-372.753906
8024.508097	3.267184	25.000000	-372.753906
8024.510098	3.266997	35.936966	0.113455
8025.562146	3.267255	126.269531	11.132812
8025.564148	3.267022	126.269531	11.132812
8025.566147	3.266898	35.935883	0.074454
8026.584711	3.266749	21.972656	-378.417969
8026.586711	3.267144	21.972656	-378.417969
8026.588712	3.266777	21.972656	-378.417969
8026.590713	3.266661	35.933266	0.235757
8027.648756	3.266003	127.734375	6.152344
8027.650756	3.267364	127.734375	6.152344
8027.656755	3.267027	127.734375	6.152344
8027.660757	3.267006	35.937061	0.069669
8028.664814	3.266542	21.972656	-381.542969
8028.666816	3.267529	21.972656	-381.542969
8028.668817	3.267519	21.972656	-381.542969
8028.670817	3.267058	35.937637	0.115196
8029.728880	3.265732	127.832031	6.347656
8029.730881	3.267238	127.832031	6.347656
8029.732883	3.267088	127.832031	6.347656
8029.734884	3.266811	35.934917	0.072552
8030.746901	3.265098	20.117187	-384.082031
8030.748902	3.267175	20.117187	-384.082031
8030.750902	3.267146	20.117187	-384.082031
8030.752903	3.266874	35.935616	0.118685
8031.812979	1.968688	127.929687	5.957031
8031.816978	3.266941	127.929687	5.957031
8031.818979	3.266849	127.929687	5.957031
8031.822979	3.266772	35.934494	0.070673
8032.831022	3.266280	19.335937	-381.933594
8032.833024	3.267197	19.335937	-381.933594
8032.835025	3.266915	19.335937	-381.933594
8032.837026	3.266766	35.934422	0.118407
8033.895066	3.266247	127.832031	8.886719
8033.899065	3.266778	127.832031	8.886719
8033.901066	3.266666	127.832031	8.886719
8033.903066	3.266558	35.932137	0.071160
8034.918009	3.266894	17.968750	-382.031250
8034.920008	3.267422	17.968750	-382.031250
8034.922010	3.266961	17.968750	-382.031250
8034.924009	3.266919	35.936104	0.227022
8035.982073	3.267235	128.027344	6.152344
8035.984073	3.267503	128.027344	6.152344
8035.986076	3.267089	128.027344	6.152344
8035.988075	3.267127	35.938393	0.281671
8037.000098	3.265340	20.605469	-376.757812
8037.002099	3.267198	20.605469	-376.757812
8037.004099	3.267053	20.605469	-376.757812
8037.006098	3.266817	35.934990	0.119616
8038.061104	3.266126	128.125000	7.617187
8038.063109	3.267044	128.125000	7.617187
8038.065109	3.266720	128.125000	7.617187
8038.067107	3.266588	35.932472	0.072164
8039.083135	3.266687	18.066406	-381.542969
8039.085137	3.266996	18.066406	-381.542969
8039.087137	3.266802	18.066406	-381.542969
8039.089137	3.266746	35.934208	0.235120
8040.143173	3.263675	129.199219	7.031250
8040.145175	3.266888	129.199219	7.031250
8040.147175	3.267097	129.199219	7.031250
8040.149175	3.266780	129.199219	7.031250
8040.153172	3.266689	35.933578	0.072302
8041.161255	3.267037	22.363281	-375.781250
8041.163258	3.267062	22.363281	-375.781250
8041.165257	3.266793	35.934723	0.118501
8042.237866	3.266772	130.566406	5.175781
8042.239874	3.266775	35.934525	0.069882
8043.249962	3.266865	20.019531	-382.714844
8043.251963	3.267531	20.019531	-382.714844
8043.253968	3.267209	20.019531	-382.714844
8043.255969	3.267125	35.938374	0.112336
8044.314043	3.267240	131.835937	5.859375
8044.316044	3.266912	131.835937	5.859375
8044.318045	3.266802	35.934822	0.086792
8045.330055	3.266637	22.363281	-379.492187
8045.332059	3.267056	22.363281	-379.492187
8045.334059	3.266690	22.363281	-379.492187
8045.336059	3.266614	35.932755	0.243466
8046.398125	3.266620	132.910156	4.101562
8046.400127	3.266929	132.910156	4.101562
8046.402127	3.266534	132.910156	4.101562
8046.408124	3.266451	35.930965	0.227134
8047.416177	3.267010	24.511719	-372.949219
8047.418179	3.266886	24.511719	-372.949219
8047.420178	3.266603	35.932629	0.116065
8048.480242	3.267306	133.300781	7.128906
8048.482245	3.266996	133.300781	7.128906
8048.484244	3.266804	35.934845	0.122476
8049.500872	3.264753	23.046875	-373.046875
8049.502873	3.266977	23.046875	-373.046875
8049.504872	3.266976	23.046875	-373.046875
8049.506873	3.266655	35.933208	0.115170
8050.557361	3.266989	132.617187	9.765625
8050.559358	3.267229	132.617187	9.765625
8050.561358	3.266845	132.617187	9.765625
8050.563359	3.266811	35.934925	0.421671
8051.585950	3.266543	28.222656	-365.429687
8051.587952	3.267317	28.222656	-365.429687
8051.589953	3.266846	28.222656	-365.429687
8051.591954	3.266731	35.934040	0.116717
8052.644010	3.265758	131.054687	7.519531
8052.646014	3.267154	131.054687	7.519531
8052.648018	3.266934	131.054687	7.519531
8052.650021	3.266780	35.934582	0.072946
8053.666070	3.263622	25.390625	-366.894531
8053.668071	3.266916	25.390625	-366.894531
8053.670071	3.267235	25.390625	-366.894531
8053.672072	3.266866	25.390625	-366.894531
8053.674072	3.266791	35.934696	0.121273
8054.730095	3.266524	131.054687	5.859375
8054.732096	3.267068	131.054687	5.859375
8054.736095	3.266704	131.054687	5.859375
8054.738097	3.266709	35.933800	0.069902
8055.752129	3.266546	16.796875	-374.609375
8055.754132	3.267104	16.796875	-374.609375
8055.756133	3.266724	16.796875	-374.609375
8055.758133	3.266658	35.933243	0.116390
8056.816246	3.266430	132.324219	3.808594
8056.818249	3.267318	132.324219	3.808594
8056.820249	3.266887	132.324219	3.808594
8056.822248	3.266789	35.934677	0.070019
8057.830295	3.263847	16.992187	-378.710937
8057.832298	3.266736	16.992187	-378.710937
8057.834299	3.267005	16.992187	-378.710937
8057.836297	3.266605	16.992187	-378.710937
8057.838299	3.266587	35.932453	0.116973
8058.898332	3.267442	134.472656	2.441406
8058.900336	3.267304	134.472656	2.441406
8058.902335	3.267252	35.939774	0.073732
8059.912381	3.263523	19.726562	-379.785156
8059.914383	3.267108	19.726562	-379.785156
8059.916383	3.267415	19.726562	-379.785156
8059.918383	3.267090	19.726562	-379.785156
8059.920384	3.267023	35.937248	0.120472
8060.984461	3.265834	136.035156	2.246094
8060.986465	3.267313	136.035156	2.246094
8060.988464	3.267045	136.035156	2.246094
8060.990464	3.266886	35.935753	0.075006
8062.001105	3.266805	21.093750	-375.585937
8062.003102	3.266887	21.093750	-375.585937
8062.005103	3.266634	21.093750	-375.585937
8062.007102	3.266652	35.933170	0.113357
8063.065140	3.264316	136.230469	2.050781
8063.067142	3.266900	136.230469	2.050781
8063.069142	3.266987	136.230469	2.050781
8063.073139	3.266650	35.933155	0.077387
8064.085255	3.266434	27.246094	-362.207031
8064.087255	3.267298	27.246094	-362.207031
8064.089256	3.266819	27.246094	-362.207031
8064.093254	3.266754	35.934296	0.113781
8065.145244	3.267610	136.328125	5.078125
8065.147246	3.267166	136.328125	5.078125
8065.149246	3.267060	35.937656	0.075541
8066.167267	3.264179	27.539062	-362.500000
8066.169298	3.266937	27.539062	-362.500000
8066.171301	3.267032	27.539062	-362.500000
8066.173300	3.266777	27.539062	-362.500000
8066.175300	3.266752	35.934269	0.116966
8067.227362	3.266307	135.449219	5.566406
8067.229363	3.267096	135.449219	5.566406
8067.231363	3.266801	135.449219	5.566406
8067.235361	3.266675	35.933418	0.073875
8068.253392	3.267240	24.023437	-366.113281
8068.255391	3.267241	24.023437	-366.113281
8068.257392	3.266787	35.934654	0.116871
8069.309893	3.266982	135.742187	4.589844
8069.311896	3.267540	135.742187	4.589844
8069.313897	3.267164	135.742187	4.589844
8069.315896	3.267111	35.938221	0.074972
8070.338007	3.266790	25.878906	-361.035156
8070.340006	3.266995	25.878906	-361.035156
8070.342006	3.266704	25.878906	-361.035156
8070.344006	3.266629	35.932915	0.464360
8071.396062	3.266294	135.742187	3.222656
8071.398064	3.267137	135.742187	3.222656
8071.400062	3.266754	135.742187	3.222656
8071.402063	3.266592	35.932507	0.073254
8072.414153	3.264312	22.851562	-362.792969
8072.416160	3.267123	22.851562	-362.792969
8072.418162	3.267272	22.851562	-362.792969
8072.420165	3.267017	22.851562	-362.792969
8072.422166	3.266908	35.935989	0.121588
8073.478266	3.265621	135.839844	2.343750
8073.482267	3.266852	135.839844	2.343750
8073.484267	3.266741	135.839844	2.343750
8073.486267	3.266731	35.934040	0.073727
8074.500316	3.263381	19.433594	-365.820312
8074.502316	3.266849	19.433594	-365.820312
8074.504316	3.267180	19.433594	-365.820312
8074.506317	3.266832	19.433594	-365.820312
8074.508316	3.266806	35.934864	0.119914
8075.564407	3.266482	136.230469	2.148437
8075.566408	3.267152	136.230469	2.148437
8075.568409	3.266795	136.230469	2.148437
8075.570409	3.266725	35.933979	0.072248
8076.582449	3.265718	21.289062	-362.890625
8076.584451	3.267340	21.289062	-362.890625
8076.586452	3.267171	21.289062	-362.890625
8076.588453	3.267044	35.937489	0.121356
8077.648505	3.266977	136.816406	1.757812
8077.652506	3.266567	136.816406	1.757812
8077.654506	3.266637	35.933002	0.074376
